Wavelength      Ele       excit   log gf                         EW
 10065.045      26.0      4.83    -0.288                         91.9
 10065.101      26.0      6.00    -3.898                         91.9
 10070.521      26.0      5.51    -1.948                          6.6
 10080.415      26.0      5.10    -2.856                          5.3
 10081.394      26.0      2.42    -4.544                          6.2
 10086.242      26.0      2.95    -4.079                          5.8
 10087.111      26.0      5.98    -3.922                         12.9
 10089.777      26.0      5.45    -1.317                          8.0
 10093.370      26.0      6.14    -1.039                          7.2
 10093.409      26.0      6.28    -3.526                          7.3
 10094.867      26.0      6.01    -5.372                          5.6
 10114.015      26.0      2.76    -3.705                         15.3
 10137.100      26.0      5.09    -1.650                          9.2
 10142.844      26.0      5.06    -1.422                         14.4
 10145.561      26.0      4.80    -0.177                        105.5
 10153.274      26.0      5.51    -2.220                         12.9
 10153.306      26.0      5.45    -1.192                         13.0
 10155.163      26.0      2.18    -4.225                         15.8
 10156.507      26.0      4.59    -1.707                         11.8
 10167.460      26.0      5.85    -5.530                         19.8
 10167.469      26.0      2.20    -4.114                         19.8
 10191.129      26.0      5.92    -2.919                          9.4
 10191.539      26.0      2.42    -9.008                          8.7
 10195.106      26.0      2.73    -3.589                         21.9
 10198.427      26.0      6.02    -1.268                          5.4
 10216.313      26.0      4.73    -0.062                        127.1
 10218.408      26.0      3.07    -2.760                         40.5
 10227.991      26.0      6.12    -0.355                         19.4
 10230.782      26.0      5.87    -3.186                         21.0
 10230.796      26.0      6.12    -0.334                         21.0
 10243.746      26.0      6.36    -7.475                         10.2
 10243.746      26.0      6.36    -8.530                         10.2
 10252.553      26.0      5.83    -2.914                         10.2
 10258.238      26.0      5.83    -2.457                          5.4
 10262.472      26.0      5.48    -2.395                          7.5
 10262.495      26.0      4.29    -9.831                          7.5
 10265.218      26.0      2.22    -4.533                          7.7
 10273.668      26.0      5.94    -3.148                          8.9
 10273.719      26.0      5.95    -1.866                          8.9
 10277.320      26.0      6.40    -7.278                          7.8
 10277.320      26.0      6.40    -9.042                          7.8
 10283.320      26.0      6.13    -3.412                          5.0
 10283.776      26.0      5.51    -1.673                          5.5
 10297.114      26.0      6.20    -7.764                          5.9
 10299.312      26.0      5.84    -3.734                          7.0
 10299.344      26.0      5.96    -8.045                          7.0
 10299.349      26.0      6.32    -8.673                          7.0
 10307.419      26.0      6.37    -7.817                          5.5
 10307.419      26.0      6.37    -8.384                          5.5
 10307.455      26.0      4.59    -2.060                          5.5
 10312.524      26.0      5.93    -3.385                         15.6
 10327.323      26.0      5.54    -2.704                        134.4
 10332.328      26.0      3.63    -2.938                         10.1
 10333.171      26.0      6.21    -6.554                          8.8
 10333.171      26.0      6.21    -9.476                          8.8
 10333.185      26.0      4.59    -2.657                          8.8
 10340.886      26.0      2.20    -3.574                         46.7
 10345.176      26.0      6.17    -4.494                          6.5
 10347.966      26.0      5.39    -0.548                         36.9
 10347.981      26.0      6.33    -6.141                         36.9
 10353.805      26.0      5.39    -0.816                         23.2
 10353.834      26.0      5.51    -2.332                         23.2
 10362.705      26.0      5.48    -2.391                         12.2
 10364.063      26.0      5.45    -0.962                         17.3
 10379.000      26.0      2.22    -4.145                         18.0
 10388.746      26.0      5.45    -1.102                          7.8
 10395.796      26.0      2.18    -3.390                         60.5
 10400.783      26.0      5.54    -2.774                          5.2
 10423.029      26.0      2.69    -3.627                         22.6
 10423.743      26.0      3.07    -2.918                         29.7
 10423.795      26.0      5.84    -3.371                         29.7
 10435.355      26.0      4.73    -1.950                          9.6
 10448.575      26.0      6.28    -7.124                          6.4
 10448.576      26.0      6.28    -7.735                          6.4
 10453.153      26.0      5.48    -9.848                          8.4
 10469.653      26.0      3.88    -1.187                         89.2
 10469.673      26.0      6.09    -4.956                         89.2
 10501.507      26.0      6.11    -4.206                         18.2
 10529.595      26.0      6.35    -8.652                         15.1
 10529.595      26.0      6.35    -9.890                         15.1
 10532.235      26.0      3.93    -1.482                         64.1
 10535.710      26.0      6.21    -0.108                         27.6
 10546.350      26.0      5.87    -4.110                          6.8
 10546.434      26.0      6.27    -1.547                          6.8
 10555.650      26.0      5.45    -1.478                         11.4
 10577.139      26.0      3.30    -3.137                         16.7
 10611.687      26.0      6.17     0.021                         38.8
 10616.721      26.0      3.27    -3.128                         15.0
 10674.071      26.0      6.17    -0.458                         14.8
 10683.104      26.0      3.63    -3.892                        194.6
 10687.795      26.0      5.51    -1.805                         17.5
 10716.341      26.0      5.93    -4.112                          5.5
 10717.780      26.0      5.97    -4.006                          5.4
 10717.808      26.0      5.54    -0.425                          5.4
 10725.172      26.0      5.93    -3.441                         15.8
 10725.186      26.0      3.64    -2.763                         15.8
 10753.005      26.0      3.96    -1.847                         39.3
 10754.001      26.0      6.66    -2.557                         43.7
 10754.282      26.0      5.59    -1.473                          5.8
 10754.753      26.0      2.83    -4.481                          5.9
 10761.442      26.0      6.22    -0.708                          6.8
 10771.229      26.0      5.59    -1.817                          5.5
 10775.500      26.0      6.22    -0.807                          6.4
 10780.694      26.0      3.24    -3.290                          9.0
 10783.050      26.0      3.11    -2.566                         46.5
 10785.389      26.0      5.62    -1.380                          7.3
 10799.578      26.0      6.29    -7.366                        103.7
 10818.276      26.0      3.96    -1.948                         34.8
 10821.643      26.0      6.43    -8.708                          8.1
 10833.964      26.0      5.59    -1.019                         39.6
 10837.997      26.0      5.41    -7.963                         19.5
 10846.819      26.0      4.28    -5.624                         10.7
 10849.467      26.0      5.54    -1.495                         45.9
 10853.018      26.0      6.02    -6.000                          7.4
 10862.639      26.0      6.15    -3.344                         14.8
 10862.672      26.0      6.19    -3.207                         14.7
 10863.519      26.0      4.73    -0.903                         64.5
 10863.559      26.0      6.40    -3.608                         64.5
 10879.880      26.0      5.95    -3.601                          8.8
 10881.746      26.0      6.28    -5.221                         26.2
 10881.758      26.0      2.85    -3.553                         26.2
 10884.264      26.0      3.93    -1.927                         40.6
 10884.270      26.0      5.62    -4.741                         40.7
 10885.366      26.0      6.15    -3.444                        137.2
 10885.405      26.0      5.61    -5.008                        137.2
 10892.254      26.0      5.34    -3.434                         56.0
 10893.693      26.0      5.87    -2.972                          9.6
 10896.299      26.0      3.07    -2.692                         42.8
 10913.036      26.0      5.54    -3.182                          5.6
 10930.858      26.0      6.27    -4.802                         43.0
 10950.825      26.0      6.18    -4.079                          8.9
 10950.833      26.0      6.33    -9.804                          8.9
 10967.116      26.0      6.37    -5.128                         10.1
 10967.891      26.0      5.91    -2.827                         12.5
 10979.348      26.0      5.83    -3.469                        167.6
 10979.828      26.0      6.07    -3.891                         56.7
 10984.580      26.0      6.17    -4.259                         88.9
 11004.112      26.0      6.17    -4.923                         34.5
 11013.235      26.0      4.80    -1.390                         37.8
 11026.789      26.0      3.94    -2.771                         22.4
 11053.514      26.0      3.98    -3.270                         76.5
 11054.709      26.0      6.52    -8.672                         44.2
 11056.071      26.0      5.88    -7.642                         24.1
 11061.070      26.0      5.96    -6.081                          8.1
 11062.329      26.0      5.97    -2.638                         70.4
 11066.950      26.0      6.02    -2.269                          7.6
 11068.598      26.0      6.24    -7.986                         18.4
 11069.195      26.0      5.68    -8.796                         39.2
 11074.637      26.0      5.91    -4.136                        107.7
 11075.251      26.0      6.24    -6.176                         19.4
 11076.106      26.0      6.17    -4.998                         13.9
 11078.658      26.0      6.39    -5.874                        107.3
 11079.528      26.0      6.09    -5.251                        103.5
 11098.941      26.0      5.84    -4.210                         65.0
 11102.238      26.0      6.13    -5.253                         23.7
 11114.250      26.0      5.98    -2.445                         46.4
 11114.297      26.0      6.04    -5.684                         71.7
 11119.796      26.0      2.85    -2.202                         83.3
 11124.090      26.0      6.42    -4.473                         57.2
 11140.736      26.0      6.53    -4.165                         76.3
 11143.299      26.0      6.41    -9.601                        118.5
 11641.802      26.0      4.58    -2.888                         14.8
 11676.301      26.0      4.96    -2.712                         80.9
 11705.091      26.0      6.55    -7.893                         31.4
 11705.091      26.0      6.55    -8.141                         31.4
 11708.359      26.0      6.34    -4.356                          9.4
 11726.986      26.0      5.93    -2.534                          5.4
 11727.734      26.0      6.33    -1.011                         30.9
 11743.695      26.0      5.95    -1.759                          7.0
 11763.421      26.0      6.40    -3.346                         87.8
 11816.916      26.0      6.00    -6.216                        119.7
 11825.062      26.0      6.30    -4.436                         21.7
 11841.669      26.0      6.30    -1.367                         30.1
 11856.214      26.0      6.31    -7.864                        100.0
 11858.395      26.0      5.99    -3.002                          8.3
 11858.427      26.0      5.99    -2.667                          8.3
 11858.469      26.0      6.30    -3.509                          8.3
 11890.489      26.0      5.54    -0.519                         64.4
 11907.979      26.0      5.93    -2.349                         77.2
 11909.901      26.0      5.36    -3.974                         56.5
 11910.388      26.0      6.57    -7.787                         23.9
 11922.775      26.0      6.36    -2.147                         30.1
 11942.437      26.0      5.07    -3.567                         56.2
 11943.356      26.0      6.40    -8.475                          9.7
 11943.392      26.0      5.95    -1.584                          9.7
 11947.565      26.0      6.41    -3.989                        117.8
 11951.687      26.0      6.43    -5.929                         52.4
 11951.687      26.0      6.43    -7.905                         52.4
 11954.454      26.0      6.32    -5.820                         36.6
 11960.235      26.0      6.24    -3.364                        139.2
 11969.351      26.0      6.28    -4.835                         31.2
 11973.842      26.0      6.36    -5.096                         12.6
 11981.866      26.0      6.40    -4.119                        101.8
 11982.933      26.0      6.40    -4.625                         33.4
 11993.994      26.0      6.43    -3.084                        133.2
 12015.639      26.0      6.21    -5.232                        184.2
 12025.483      26.0      3.42    -7.644                          6.2
 12048.401      26.0      2.22   -13.268                         10.0
 12050.435      26.0      5.59    -2.939                          9.7
 12051.807      26.0      6.54    -8.214                         26.0
 12051.807      26.0      6.54    -9.860                         26.0
 12053.083      26.0      4.56    -1.543                         39.6
 12066.261      26.0      6.32    -3.791                         17.5
 12107.325      26.0      6.55    -7.165                         32.5
 12113.692      26.0      5.31    -6.821                         31.3
 12115.956      26.0      6.25    -2.430                         89.6
 12117.172      26.0      5.36    -5.229                          6.3
 12119.496      26.0      4.59    -1.637                         29.5
 12123.714      26.0      6.07    -6.174                         22.7
 12127.354      26.0      5.96    -7.176                         53.3
 12131.180      26.0      5.95    -1.274                          6.4
 12134.565      26.0      6.42    -8.165                         42.1
 12135.598      26.0      6.27    -6.538                         73.9
 12135.965      26.0      6.42    -5.804                         29.8
 12142.645      26.0      6.33    -5.034                         61.6
 12146.966      26.0      6.61    -8.612                         10.2
 12146.966      26.0      6.61    -8.636                         10.2
 12159.090      26.0      6.33    -4.399                         28.4
 12159.177      26.0      5.54    -7.523                         28.4
 12160.180      26.0      6.07    -5.138                          9.4
 12173.724      26.0      6.31    -3.084                          5.7
 12173.918      26.0      6.07    -4.268                          7.2
 12175.743      26.0      6.22    -3.695                         42.0
 12180.452      26.0      6.43    -1.537                          8.2
 12190.099      26.0      3.63    -2.330                         52.0
 12197.466      26.0      5.70    -2.380                          7.8
 12213.299      26.0      6.40    -2.819                         18.6
 12213.336      26.0      4.64    -1.829                         18.6
 12227.113      26.0      4.61    -1.354                         50.4
 12234.249      26.0      6.43    -6.224                         72.9
 12239.505      26.0      6.00    -4.679                         49.3
 12241.401      26.0      6.33    -6.356                         27.7
 12244.923      26.0      3.64    -3.692                         11.6
 12245.286      26.0      6.51    -8.135                         10.6
 12245.286      26.0      6.51    -8.555                         10.6
 12280.769      26.0      6.39    -4.511                         10.3
 12280.784      26.0      6.33    -2.452                         10.3
 12327.412      26.0      6.43    -3.907                         14.9
 12340.483      26.0      2.28    -5.122                          7.9
 12342.916      26.0      4.64    -1.449                         41.4
 12423.654      26.0      6.09    -7.687                         14.0
 12426.105      26.0      6.00    -6.172                          5.2
 12457.073      26.0      6.37    -2.962                         25.3
 12458.166      26.0      6.29    -3.694                          7.8
 12459.764      26.0      5.62    -1.436                          5.0
 12478.763      26.0      5.35    -5.643                          6.0
 12510.519      26.0      4.96    -1.604                         11.8
 12556.998      26.0      2.28    -3.626                         33.4
 12569.070      26.0      6.37    -6.216                         52.1
 12577.649      26.0      6.37    -5.446                          5.3
 12581.131      26.0      5.95    -2.276                          9.6
 12607.855      26.0      6.33    -5.011                         91.2
 12615.928      26.0      4.64    -1.505                         28.8
 12629.409      26.0      6.59    -8.853                        177.8
 12629.409      26.0      6.59    -8.918                        177.8
 12638.705      26.0      4.56    -0.774                        110.0
 12648.742      26.0      4.61    -1.140                         45.0
 12670.953      26.0      6.43    -5.611                        119.2
 12670.954      26.0      6.43    -5.580                        119.2
 12680.020      26.0      3.60    -7.948                        152.2
 12680.236      26.0      6.40    -1.530                         56.5
 12680.704      26.0      5.48    -2.343                        199.8
 12687.638      26.0      6.14    -3.485                         39.1
 12707.397      26.0      5.30    -3.881                         11.3
 12716.785      26.0      6.31    -4.183                        143.9
 12716.839      26.0      6.01    -5.020                        143.9
 12741.122      26.0      6.44    -3.245                         78.1
 12741.185      26.0      6.13    -4.992                         78.1
 12748.368      26.0      6.43    -3.289                        125.1
 12767.374      26.0      6.37    -4.255                         52.2
 12779.412      26.0      5.37    -6.308                         60.3
 12782.419      26.0      6.44    -3.186                         52.8
 12791.344      26.0      6.24    -3.651                         38.0
 12795.690      26.0      6.11    -2.965                         15.8
 12807.152      26.0      3.64    -2.453                         36.0
 12808.223      26.0      5.83    -4.844                         16.3
 12808.243      26.0      4.99    -1.363                         16.3
 12815.975      26.0      6.38    -3.830                         30.0
 12824.860      26.0      3.02    -3.812                         19.5
 12838.417      26.0      6.11    -5.172                         14.4
 12838.454      26.0      5.84    -3.133                         14.4
 12840.556      26.0      6.13    -3.440                         24.4
 12840.574      26.0      4.96    -1.330                         24.4
 12863.833      26.0      6.40    -3.726                          7.3
